#K-Path(1/A)         Spin-Up(eV)   Spin-down(eV)
# NKPTS & NBANDS:  60  32
# Band-Index    1
   0.00000    -18.149335    -18.149291
   0.07599    -18.135967    -18.135922
   0.15199    -18.095904    -18.095858
   0.22798    -18.029346    -18.029299
   0.30397    -17.936626    -17.936577
   0.37996    -17.818291    -17.818239
   0.45596    -17.675042    -17.674987
   0.53195    -17.507950    -17.507891
   0.60794    -17.318288    -17.318224
   0.68393    -17.107826    -17.107757
   0.75993    -16.878766    -16.878691
   0.83592    -16.634152    -16.634070
   0.91191    -16.378238    -16.378148
   0.98791    -16.116607    -16.116507
   1.06390    -15.856998    -15.856889
   1.13989    -15.609684    -15.609563
   1.21588    -15.388270    -15.388138
   1.29188    -15.209432    -15.209290
   1.36787    -15.091116    -15.090967
   1.44386    -15.049413    -15.049261
   1.44386    -15.049413    -15.049261
   1.48774    -15.046377    -15.046225
   1.53161    -15.037572    -15.037419
   1.57548    -15.022915    -15.022762
   1.61936    -15.002638    -15.002485
   1.66323    -14.977040    -14.976885
   1.70711    -14.946362    -14.946206
   1.75098    -14.911134    -14.910977
   1.79486    -14.871833    -14.871675
   1.83873    -14.829097    -14.828937
   1.88261    -14.783799    -14.783637
   1.92648    -14.736751    -14.736587
   1.97035    -14.689066    -14.688900
   2.01423    -14.641983    -14.641815
   2.05810    -14.596896    -14.596726
   2.10198    -14.555486    -14.555314
   2.14585    -14.519527    -14.519352
   2.18973    -14.490918    -14.490742
   2.23360    -14.471606    -14.471429
   2.27748    -14.463675    -14.463497
   2.27748    -14.463675    -14.463497
   2.36522    -14.496324    -14.496149
   2.45297    -14.593585    -14.593416
   2.54072    -14.757499    -14.757340
   2.62847    -14.980971    -14.980824
   2.71622    -15.250058    -15.249924
   2.80397    -15.549036    -15.548916
   2.89172    -15.862756    -15.862649
   2.97947    -16.178787    -16.178691
   3.06722    -16.487224    -16.487138
   3.15496    -16.780599    -16.780521
   3.24271    -17.053202    -17.053132
   3.33046    -17.300916    -17.300852
   3.41821    -17.520500    -17.520442
   3.50596    -17.709537    -17.709483
   3.59371    -17.866354    -17.866304
   3.68146    -17.989542    -17.989493
   3.76921    -18.078131    -18.078085
   3.85695    -18.131520    -18.131475
   3.94470    -18.149335    -18.149291
 
# Band-Index    2
   3.94470    -18.062947    -18.062892
   3.85695    -18.045371    -18.045316
   3.76921    -17.992626    -17.992569
   3.68146    -17.905050    -17.904991
   3.59371    -17.783327    -17.783266
   3.50596    -17.628399    -17.628334
   3.41821    -17.441647    -17.441578
   3.33046    -17.224748    -17.224674
   3.24271    -16.980302    -16.980222
   3.15496    -16.711347    -16.711261
   3.06722    -16.422275    -16.422180
   2.97947    -16.118726    -16.118621
   2.89172    -15.808380    -15.808265
   2.80397    -15.501021    -15.500894
   2.71622    -15.209381    -15.209241
   2.62847    -14.948229    -14.948077
   2.54072    -14.733427    -14.733264
   2.45297    -14.578223    -14.578052
   2.36522    -14.489154    -14.488977
   2.27748    -14.463675    -14.463497
   2.27748    -14.463675    -14.463497
   2.23360    -14.468625    -14.468447
   2.18973    -14.485292    -14.485115
   2.14585    -14.511643    -14.511467
   2.10198    -14.545671    -14.545497
   2.05810    -14.585422    -14.585250
   2.01423    -14.629118    -14.628947
   1.97035    -14.675050    -14.674882
   1.92648    -14.721757    -14.721591
   1.88261    -14.768005    -14.767841
   1.83873    -14.812652    -14.812489
   1.79486    -14.854785    -14.854624
   1.75098    -14.893624    -14.893464
   1.70711    -14.928481    -14.928322
   1.66323    -14.958830    -14.958672
   1.61936    -14.984125    -14.983968
   1.57548    -15.004222    -15.004065
   1.53161    -15.018773    -15.018617
   1.48774    -15.027558    -15.027402
   1.44386    -15.030541    -15.030386
   1.44386    -15.030541    -15.030386
   1.36787    -15.068685    -15.068532
   1.29188    -15.179302    -15.179155
   1.21588    -15.349979    -15.349841
   1.13989    -15.563890    -15.563762
   1.06390    -15.804688    -15.804571
   0.98791    -16.058690    -16.058582
   0.91191    -16.315521    -16.315422
   0.83592    -16.567268    -16.567177
   0.75993    -16.808218    -16.808134
   0.68393    -17.034116    -17.034037
   0.60794    -17.241909    -17.241835
   0.53195    -17.429211    -17.429142
   0.45596    -17.594277    -17.594212
   0.37996    -17.735789    -17.735727
   0.30397    -17.852744    -17.852685
   0.22798    -17.944392    -17.944335
   0.15199    -18.010182    -18.010125
   0.07599    -18.049735    -18.049679
   0.00000    -18.062947    -18.062892
 
# Band-Index    3
   0.00000     -6.180248     -6.180572
   0.07599     -6.161960     -6.162283
   0.15199     -6.107159     -6.107481
   0.22798     -6.016041     -6.016361
   0.30397     -5.888972     -5.889288
   0.37996     -5.726460     -5.726771
   0.45596     -5.529246     -5.529551
   0.53195     -5.298313     -5.298611
   0.60794     -5.034981     -5.035270
   0.68393     -5.293640     -5.293572
   0.75993     -5.872497     -5.872442
   0.83592     -6.445151     -6.445108
   0.91191     -7.001541     -7.001511
   0.98791     -7.531116     -7.531099
   1.06390     -8.022284     -8.022280
   1.13989     -8.461572     -8.461581
   1.21588     -8.833057     -8.833079
   1.29188     -9.118577     -9.118610
   1.36787     -9.299690     -9.299730
   1.44386     -9.361928     -9.361971
   1.44386     -9.361928     -9.361971
   1.48774     -9.358346     -9.358389
   1.53161     -9.347608     -9.347651
   1.57548     -9.329727     -9.329768
   1.61936     -9.304734     -9.304774
   1.66323     -9.272689     -9.272728
   1.70711     -9.233629     -9.233666
   1.75098     -9.187653     -9.187688
   1.79486     -9.134877     -9.134909
   1.83873     -9.075468     -9.075497
   1.88261     -9.009668     -9.009694
   1.92648     -8.937806     -8.937828
   1.97035     -8.860386     -8.860403
   2.01423     -8.778190     -8.778201
   2.05810     -8.692496     -8.692501
   2.10198     -8.605465     -8.605461
   2.14585     -8.521019     -8.521005
   2.18973     -8.446312     -8.446286
   2.23360     -8.393192     -8.393155
   2.27748     -8.374387     -8.374345
   2.27748     -8.374387     -8.374345
   2.36522     -8.420324     -8.420294
   2.45297     -8.458303     -8.458286
   2.54072     -8.408883     -8.408869
   2.62847     -8.254976     -8.254958
   2.71622     -8.001993     -8.001969
   2.80397     -7.662939     -7.662907
   2.89172     -7.252353     -7.252312
   2.97947     -6.783905     -6.783855
   3.06722     -6.270058     -6.269998
   3.15496     -5.722398     -5.722329
   3.24271     -5.152382     -5.152304
   3.33046     -5.011077     -5.011365
   3.41821     -5.315777     -5.316075
   3.50596     -5.576839     -5.577145
   3.59371     -5.792532     -5.792845
   3.68146     -5.961500     -5.961818
   3.76921     -6.082833     -6.083155
   3.85695     -6.155868     -6.156192
   3.94470     -6.180248     -6.180572
 
# Band-Index    4
   3.94470     -5.203554     -5.203795
   3.85695     -5.180556     -5.180796
   3.76921     -5.111700     -5.111938
   3.68146     -4.997439     -4.997672
   3.59371     -4.838541     -4.838768
   3.50596     -4.636163     -4.636383
   3.41821     -4.391932     -4.392142
   3.33046     -4.572328     -4.572240
   3.24271     -5.145825     -5.145746
   3.15496     -5.715944     -5.715875
   3.06722     -6.263472     -6.263413
   2.97947     -6.776689     -6.776639
   2.89172     -7.243814     -7.243774
   2.80397     -7.652183     -7.652153
   2.71622     -7.987947     -7.987924
   2.62847     -8.236458     -8.236442
   2.54072     -8.384638     -8.384625
   2.45297     -8.427018     -8.427001
   2.36522     -8.380581     -8.380550
   2.27748     -8.328645     -8.328600
   2.27748     -8.328645     -8.328600
   2.23360     -8.349462     -8.349422
   2.18973     -8.406899     -8.406871
   2.14585     -8.485792     -8.485777
   2.10198     -8.573550     -8.573545
   2.05810     -8.663114     -8.663117
   2.01423     -8.750775     -8.750785
   1.97035     -8.834523     -8.834539
   1.92648     -8.913202     -8.913222
   1.88261     -8.986105     -8.986130
   1.83873     -9.052776     -9.052804
   1.79486     -9.112914     -9.112946
   1.75098     -9.166307     -9.166342
   1.70711     -9.212798     -9.212835
   1.66323     -9.252283     -9.252321
   1.61936     -9.284667     -9.284707
   1.57548     -9.309920     -9.309961
   1.53161     -9.327983     -9.328025
   1.48774     -9.338828     -9.338870
   1.44386     -9.342446     -9.342489
   1.44386     -9.342446     -9.342489
   1.36787     -9.279890     -9.279929
   1.29188     -9.098171     -9.098203
   1.21588     -8.812370     -8.812391
   1.13989     -8.441294     -8.441302
   1.06390     -8.003170     -8.003164
   0.98791     -7.513709     -7.513691
   0.91191     -6.986302     -6.986271
   0.83592     -6.432257     -6.432214
   0.75993     -5.861853     -5.861798
   0.68393     -5.284958     -5.284891
   0.60794     -4.718942     -4.718863
   0.53195     -4.375744     -4.375953
   0.45596     -4.591625     -4.591843
   0.37996     -4.776513     -4.776738
   0.30397     -4.929191     -4.929422
   0.22798     -5.048781     -5.049016
   0.15199     -5.134628     -5.134866
   0.07599     -5.186303     -5.186543
   0.00000     -5.203554     -5.203795
 
# Band-Index    5
   0.00000     -1.833649     -1.833500
   0.07599     -1.891657     -1.891510
   0.15199     -2.062314     -2.062171
   0.22798     -2.336041     -2.335906
   0.30397     -2.699507     -2.699382
   0.37996     -3.135490     -3.135377
   0.45596     -3.627067     -3.626965
   0.53195     -4.159468     -4.159377
   0.60794     -4.711646     -4.711567
   0.68393     -4.740975     -4.741252
   0.75993     -4.418623     -4.418887
   0.83592     -4.071085     -4.071333
   0.91191     -3.949072     -3.948958
   0.98791     -4.119365     -4.119254
   1.06390     -4.267112     -4.267002
   1.13989     -4.390360     -4.390251
   1.21588     -4.487653     -4.487545
   1.29188     -4.557919     -4.557812
   1.36787     -4.600329     -4.600223
   1.44386     -4.614528     -4.614422
   1.44386     -4.614528     -4.614422
   1.48774     -4.632865     -4.632760
   1.53161     -4.687364     -4.687261
   1.57548     -4.776340     -4.776241
   1.61936     -4.897207     -4.897114
   1.66323     -5.046763     -5.046677
   1.70711     -5.220916     -5.220838
   1.75098     -5.415631     -5.415561
   1.79486     -5.626603     -5.626541
   1.83873     -5.849562     -5.849510
   1.88261     -6.080219     -6.080176
   1.92648     -6.314305     -6.314273
   1.97035     -6.547571     -6.547550
   2.01423     -6.775611     -6.775601
   2.05810     -6.993598     -6.993600
   2.10198     -7.196030     -7.196044
   2.14585     -7.375597     -7.375625
   2.18973     -7.521895     -7.521937
   2.23360     -7.619946     -7.620001
   2.27748     -7.654095     -7.654155
   2.27748     -7.654095     -7.654155
   2.36522     -7.540159     -7.540204
   2.45297     -7.291076     -7.291100
   2.54072     -6.981966     -6.981973
   2.62847     -6.636790     -6.636782
   2.71622     -6.265033     -6.265011
   2.80397     -5.872387     -5.872352
   2.89172     -5.463792     -5.463744
   2.97947     -5.044354     -5.044293
   3.06722     -4.619685     -4.619611
   3.15496     -4.281231     -4.281489
   3.24271     -4.665179     -4.665454
   3.33046     -4.565581     -4.565492
   3.41821     -3.996319     -3.996221
   3.50596     -3.441217     -3.441108
   3.59371     -2.927924     -2.927804
   3.68146     -2.481456     -2.481325
   3.76921     -2.133486     -2.133345
   3.85695     -1.910762     -1.910616
   3.94470     -1.833649     -1.833500
 
# Band-Index    6
   3.94470     -1.833621     -1.833472
   3.85695     -1.904757     -1.904610
   3.76921     -2.130691     -2.130551
   3.68146     -2.480635     -2.480503
   3.59371     -2.924084     -2.923963
   3.50596     -3.435519     -3.435409
   3.41821     -3.989773     -3.989674
   3.33046     -4.107981     -4.108179
   3.24271     -3.787210     -3.787392
   3.15496     -4.196331     -4.196245
   3.06722     -4.604552     -4.604476
   2.97947     -5.028574     -5.028510
   2.89172     -5.447711     -5.447661
   2.80397     -5.856350     -5.856312
   2.71622     -6.249477     -6.249452
   2.62847     -6.622370     -6.622359
   2.54072     -6.969460     -6.969464
   2.45297     -7.281782     -7.281803
   2.36522     -7.536161     -7.536204
   2.27748     -7.654094     -7.654154
   2.27748     -7.654094     -7.654154
   2.23360     -7.617431     -7.617485
   2.18973     -7.514911     -7.514951
   2.14585     -7.364589     -7.364614
   2.10198     -7.182135     -7.182146
   2.05810     -6.977846     -6.977844
   2.01423     -6.758715     -6.758702
   1.97035     -6.530102     -6.530078
   1.92648     -6.296647     -6.296613
   1.88261     -6.062640     -6.062595
   1.83873     -5.832248     -5.832194
   1.79486     -5.609650     -5.609587
   1.75098     -5.399065     -5.398993
   1.70711     -5.204759     -5.204679
   1.66323     -5.031082     -5.030994
   1.61936     -4.881993     -4.881898
   1.57548     -4.761443     -4.761343
   1.53161     -4.672683     -4.672579
   1.48774     -4.618260     -4.618153
   1.44386     -4.599990     -4.599882
   1.44386     -4.599990     -4.599882
   1.36787     -4.585752     -4.585644
   1.29188     -4.543447     -4.543338
   1.21588     -4.473315     -4.473206
   1.13989     -4.376182     -4.376072
   1.06390     -4.253163     -4.253051
   0.98791     -4.105686     -4.105573
   0.91191     -3.935718     -3.935603
   0.83592     -3.758672     -3.758556
   0.75993     -3.560849     -3.561019
   0.68393     -3.857880     -3.858065
   0.60794     -4.130463     -4.130661
   0.53195     -4.153027     -4.152936
   0.45596     -3.621368     -3.621265
   0.37996     -3.130681     -3.130567
   0.30397     -2.696138     -2.696013
   0.22798     -2.333568     -2.333434
   0.15199     -2.058076     -2.057933
   0.07599     -1.885348     -1.885200
   0.00000     -1.833621     -1.833472
 
# Band-Index    7
   0.00000     -1.826352     -1.826202
   0.07599     -1.860670     -1.860522
   0.15199     -1.939957     -1.939810
   0.22798     -2.066037     -2.065893
   0.30397     -2.231083     -2.230942
   0.37996     -2.426221     -2.426085
   0.45596     -2.642037     -2.641905
   0.53195     -2.869796     -2.869668
   0.60794     -3.101596     -3.101471
   0.68393     -3.330618     -3.330497
   0.75993     -3.551291     -3.551173
   0.83592     -3.745708     -3.745591
   0.91191     -3.702752     -3.702981
   0.98791     -3.319786     -3.319992
   1.06390     -2.931100     -2.931279
   1.13989     -2.549737     -2.549885
   1.21588     -2.194989     -2.195102
   1.29188     -1.894829     -1.894907
   1.36787     -1.686829     -1.686879
   1.44386     -1.611106     -1.611145
   1.44386     -1.611106     -1.611145
   1.48774     -1.606376     -1.606415
   1.53161     -1.592341     -1.592379
   1.57548     -1.569058     -1.569093
   1.61936     -1.536720     -1.536751
   1.66323     -1.495590     -1.495616
   1.70711     -1.446002     -1.446022
   1.75098     -1.388428     -1.388440
   1.79486     -1.323441     -1.323446
   1.83873     -1.251769     -1.251764
   1.88261     -1.174312     -1.174296
   1.92648     -1.092172     -1.092143
   1.97035     -1.006719     -1.006676
   2.01423     -0.919568     -0.919510
   2.05810     -0.832845     -0.832772
   2.10198     -0.748921     -0.748831
   2.14585     -0.670685     -0.670578
   2.18973     -0.601466     -0.601343
   2.23360     -0.544893     -0.544755
   2.27748     -0.505064     -0.504915
   2.27748     -0.505064     -0.504915
   2.36522     -0.617993     -0.617875
   2.45297     -0.839897     -0.839828
   2.54072     -1.161410     -1.161401
   2.62847     -1.559033     -1.559082
   2.71622     -2.005427     -2.005529
   2.80397     -2.476094     -2.476241
   2.89172     -2.951736     -2.951920
   2.97947     -3.417740     -3.417954
   3.06722     -3.863507     -3.863745
   3.15496     -4.182120     -4.182031
   3.24271     -3.781750     -3.781652
   3.33046     -3.384301     -3.384192
   3.41821     -3.013130     -3.013010
   3.50596     -2.677695     -2.677567
   3.59371     -2.387558     -2.387422
   3.68146     -2.151488     -2.151347
   3.76921     -1.976974     -1.976828
   3.85695     -1.869763     -1.869615
   3.94470     -1.826352     -1.826202
 
# Band-Index    8
   3.94470     -1.826324     -1.826174
   3.85695     -1.862452     -1.862303
   3.76921     -1.969330     -1.969183
   3.68146     -2.143498     -2.143356
   3.59371     -2.378929     -2.378792
   3.50596     -2.668181     -2.668052
   3.41821     -3.002502     -3.002381
   3.33046     -3.372450     -3.372339
   3.24271     -3.768618     -3.768518
   3.15496     -3.433446     -3.433609
   3.06722     -3.051813     -3.051953
   2.97947     -2.649132     -2.649244
   2.89172     -2.234643     -2.234722
   2.80397     -1.820935     -1.820975
   2.71622     -1.424805     -1.424799
   2.62847     -1.068485     -1.068429
   2.54072     -0.778316     -0.778211
   2.45297     -0.580438     -0.580296
   2.36522     -0.490613     -0.490456
   2.27748     -0.505063     -0.504914
   2.27748     -0.505063     -0.504914
   2.23360     -0.486931     -0.486776
   2.18973     -0.490753     -0.490596
   2.14585     -0.512872     -0.512717
   2.10198     -0.549691     -0.549542
   2.05810     -0.597424     -0.597282
   2.01423     -0.652790     -0.652658
   1.97035     -0.712823     -0.712700
   1.92648     -0.774996     -0.774883
   1.88261     -0.837179     -0.837074
   1.83873     -0.897596     -0.897500
   1.79486     -0.954886     -0.954798
   1.75098     -1.007689     -1.007608
   1.70711     -1.055116     -1.055041
   1.66323     -1.096403     -1.096333
   1.61936     -1.130928     -1.130862
   1.57548     -1.158247     -1.158185
   1.53161     -1.177999     -1.177939
   1.48774     -1.189937     -1.189879
   1.44386     -1.193987     -1.193929
   1.44386     -1.193987     -1.193929
   1.36787     -1.243668     -1.243619
   1.29188     -1.389893     -1.389867
   1.21588     -1.618436     -1.618443
   1.13989     -1.906192     -1.906234
   1.06390     -2.229338     -2.229413
   0.98791     -2.568669     -2.568774
   0.91191     -2.910005     -2.910135
   0.83592     -3.243139     -3.243291
   0.75993     -3.538775     -3.538655
   0.68393     -3.318709     -3.318586
   0.60794     -3.090211     -3.090084
   0.53195     -2.859036     -2.858906
   0.45596     -2.631930     -2.631796
   0.37996     -2.416814     -2.416676
   0.30397     -2.222356     -2.222214
   0.22798     -2.057851     -2.057705
   0.15199     -1.932200     -1.932052
   0.07599     -1.853241     -1.853091
   0.00000     -1.826324     -1.826174
 
# Band-Index    9
   0.00000      4.056383      4.055911
   0.07599      4.081370      4.080898
   0.15199      4.155079      4.154609
   0.22798      4.274342      4.273873
   0.30397      4.435316      4.434848
   0.37996      4.634505      4.634038
   0.45596      4.869281      4.868814
   0.53195      5.137608      5.137141
   0.60794      5.437953      5.437484
   0.68393      5.768664      5.768193
   0.75993      6.127607      6.127133
   0.83592      6.511515      6.511039
   0.91191      6.738542      6.738279
   0.98791      6.215968      6.215612
   1.06390      5.666530      5.666093
   1.13989      5.134185      5.133681
   1.21588      4.657723      4.657163
   1.29188      4.274735      4.274129
   1.36787      4.023257      4.022617
   1.44386      3.935040      3.934388
   1.44386      3.935040      3.934388
   1.48774      3.937361      3.936709
   1.53161      3.944072      3.943419
   1.57548      3.955012      3.954357
   1.61936      3.969751      3.969094
   1.66323      3.987708      3.987047
   1.70711      4.008156      4.007491
   1.75098      4.030147      4.029477
   1.79486      4.052645      4.051970
   1.83873      4.074494      4.073813
   1.88261      4.094451      4.093762
   1.92648      4.111350      4.110653
   1.97035      4.124195      4.123488
   2.01423      4.132361      4.131645
   2.05810      4.135822      4.135098
   2.10198      4.135387      4.134655
   2.14585      4.132875      4.132137
   2.18973      4.131219      4.130478
   2.23360      4.134336      4.133596
   2.27748      4.146684      4.145952
   2.27748      4.146684      4.145952
   2.36522      4.150607      4.149864
   2.45297      4.257782      4.257054
   2.54072      4.484627      4.483935
   2.62847      4.826727      4.826086
   2.71622      5.267357      5.266769
   2.80397      5.786242      5.785705
   2.89172      6.269688      6.269389
   2.97947      6.738792      6.738559
   3.06722      6.872200      6.871724
   3.15496      6.365122      6.364650
   3.24271      5.905912      5.905442
   3.33046      5.495091      5.494623
   3.41821      5.133018      5.132552
   3.50596      4.819975      4.819509
   3.59371      4.556599      4.556133
   3.68146      4.344619      4.344151
   3.76921      4.187347      4.186877
   3.85695      4.089651      4.089179
   3.94470      4.056383      4.055911
 
# Band-Index   10
   3.94470      8.056191      8.056256
   3.85695      8.064512      8.064577
   3.76921      8.087932      8.087996
   3.68146      8.120583      8.120647
   3.59371      8.151586      8.151647
   3.50596      8.164466      8.164517
   3.41821      8.135558      8.135592
   3.33046      8.037810      8.037814
   3.24271      7.847108      7.847066
   3.15496      7.556294      7.556193
   3.06722      7.177843      7.177676
   2.97947      6.985864      6.985421
   2.89172      6.364643      6.364155
   2.80397      5.799030      5.798665
   2.71622      5.351835      5.351402
   2.62847      4.951279      4.950775
   2.54072      4.618489      4.617913
   2.45297      4.371136      4.370492
   2.36522      4.217164      4.216465
   2.27748      4.146686      4.145954
   2.27748      4.146686      4.145954
   2.23360      4.173006      4.172286
   2.18973      4.211596      4.210890
   2.14585      4.257769      4.257079
   2.10198      4.307289      4.306615
   2.05810      4.356783      4.356124
   2.01423      4.403682      4.403038
   1.97035      4.446320      4.445689
   1.92648      4.483679      4.483058
   1.88261      4.515358      4.514747
   1.83873      4.541411      4.540809
   1.79486      4.562198      4.561602
   1.75098      4.578320      4.577730
   1.70711      4.590443      4.589857
   1.66323      4.599270      4.598687
   1.61936      4.605520      4.604941
   1.57548      4.609681      4.609104
   1.53161      4.612294      4.611718
   1.48774      4.613716      4.613141
   1.44386      4.614083      4.613508
   1.44386      4.614083      4.613508
   1.36787      4.690496      4.689932
   1.29188      4.908398      4.907864
   1.21588      5.241184      5.240690
   1.13989      5.658125      5.657671
   1.06390      6.133454      6.133034
   0.98791      6.651809      6.651409
   0.91191      6.915040      6.914561
   0.83592      7.196034      7.195858
   0.75993      7.567406      7.567304
   0.68393      7.842793      7.842751
   0.60794      8.023257      8.023259
   0.53195      8.121905      8.121936
   0.45596      8.159416      8.159465
   0.37996      8.157888      8.157946
   0.30397      8.135775      8.135838
   0.22798      8.106840      8.106904
   0.15199      8.080428      8.080493
   0.07599      8.062505      8.062570
   0.00000      8.056191      8.056256
 
# Band-Index   11
   0.00000     10.423523     10.422997
   0.07599     10.443206     10.442695
   0.15199     10.482126     10.481672
   0.22798     10.492064     10.491707
   0.30397     10.448931     10.448652
   0.37996     10.367479     10.367240
   0.45596     10.266103     10.265879
   0.53195     10.131624     10.131365
   0.60794      9.589276      9.588986
   0.68393      9.009672      9.009350
   0.75993      8.407569      8.407216
   0.83592      7.800225      7.799847
   0.91191      7.209033      7.208642
   0.98791      7.329508      7.329028
   1.06390      7.740472      7.739996
   1.13989      8.125179      8.124712
   1.21588      8.452592      8.452145
   1.29188      8.693094      8.692671
   1.36787      8.834093      8.833691
   1.44386      8.879617      8.879223
   1.44386      8.879617      8.879223
   1.48774      8.903329      8.902934
   1.53161      8.973638      8.973240
   1.57548      9.088247      9.087845
   1.61936      9.243370      9.242963
   1.66323      9.433947      9.433530
   1.70711      9.654176      9.653747
   1.75098      9.896756      9.896312
   1.79486     10.154475     10.154011
   1.83873     10.419723     10.419238
   1.88261     10.685209     10.684700
   1.92648     10.944848     10.944316
   1.97035     11.193944     11.193391
   2.01423     11.335115     11.334740
   2.05810     11.135353     11.134967
   2.10198     10.967755     10.967360
   2.14585     10.835626     10.835224
   2.18973     10.741124     10.740718
   2.23360     10.684942     10.684533
   2.27748     10.666531     10.666121
   2.27748     10.666531     10.666121
   2.36522     10.735363     10.734956
   2.45297     10.923945     10.923548
   2.54072     10.766700     10.766177
   2.62847     10.047375     10.046867
   2.71622      9.341877      9.341379
   2.80397      8.664814      8.664323
   2.89172      8.024522      8.024038
   2.97947      7.425949      7.425469
   3.06722      7.634554      7.634152
   3.15496      8.295707      8.295344
   3.24271      8.954053      8.953729
   3.33046      9.592335      9.592047
   3.41821     10.193517     10.193263
   3.50596     10.739470     10.739248
   3.59371     10.654923     10.654645
   3.68146     10.572761     10.572406
   3.76921     10.505959     10.505517
   3.85695     10.449343     10.448837
   3.94470     10.423523     10.422997
 
# Band-Index   12
   3.94470     10.978744     10.978693
   3.85695     10.966275     10.966224
   3.76921     10.937273     10.937218
   3.68146     10.911351     10.911291
   3.59371     10.908935     10.908868
   3.50596     10.765059     10.764841
   3.41821     10.913883     10.913706
   3.33046     11.108868     11.108720
   3.24271     11.352403     11.352307
   3.15496     11.588111     11.588007
   3.06722     11.864636     11.864521
   2.97947     12.170370     12.170242
   2.89172     12.193901     12.193648
   2.80397     12.060744     12.060464
   2.71622     11.822089     11.821771
   2.62847     11.515388     11.515035
   2.54072     11.198325     11.197946
   2.45297     11.471386     11.470843
   2.36522     12.103466     12.102893
   2.27748     12.540911     12.540321
   2.27748     12.540911     12.540321
   2.23360     12.391219     12.390621
   2.18973     12.227206     12.226605
   2.14585     12.049228     12.048627
   2.10198     11.857182     11.856587
   2.05810     11.650839     11.650253
   2.01423     11.429664     11.429092
   1.97035     11.562528     11.562168
   1.92648     11.812052     11.811710
   1.88261     11.596708     11.596447
   1.83873     11.240384     11.240135
   1.79486     10.894790     10.894546
   1.75098     10.569095     10.568851
   1.70711     10.270814     10.270570
   1.66323     10.006327     10.006081
   1.61936      9.781356      9.781108
   1.57548      9.600769      9.600519
   1.53161      9.468642      9.468391
   1.48774      9.388107      9.387854
   1.44386      9.361029      9.360776
   1.44386      9.361029      9.360776
   1.36787      9.367100      9.366847
   1.29188      9.385253      9.385001
   1.21588      9.415401      9.415150
   1.13989      9.457394      9.457146
   1.06390      9.511004      9.510759
   0.98791      9.575867      9.575625
   0.91191      9.651651      9.651414
   0.83592      9.737633      9.737401
   0.75993      9.832699      9.832471
   0.68393      9.935745      9.935522
   0.60794     10.044519     10.044300
   0.53195     10.156099     10.155881
   0.45596     10.625376     10.625146
   0.37996     10.824583     10.824514
   0.30397     10.877866     10.877804
   0.22798     10.920288     10.920231
   0.15199     10.950445     10.950390
   0.07599     10.970143     10.970091
   0.00000     10.978744     10.978693
 
# Band-Index   13
   0.00000     10.978769     10.978719
   0.07599     11.021623     11.021560
   0.15199     11.062141     11.062013
   0.22798     11.179926     11.179687
   0.30397     11.398054     11.397721
   0.37996     11.060600     11.060397
   0.45596     10.763883     10.763803
   0.53195     10.699127     10.699036
   0.60794     10.634165     10.634062
   0.68393     10.572251     10.572136
   0.75993     10.517590     10.517462
   0.83592     10.474798     10.474658
   0.91191     10.449812     10.449659
   0.98791     10.451430     10.451263
   1.06390     10.492411     10.492226
   1.13989     10.592935     10.592724
   1.21588     10.777699     10.777454
   1.29188     11.063731     11.063447
   1.36787     11.427957     11.427641
   1.44386     11.675325     11.675005
   1.44386     11.675325     11.675005
   1.48774     11.680331     11.680011
   1.53161     11.695068     11.694748
   1.57548     11.719726     11.719405
   1.61936     11.754090     11.753768
   1.66323     11.797678     11.797354
   1.70711     11.850430     11.850104
   1.75098     11.911854     11.911527
   1.79486     11.981564     11.981236
   1.83873     12.059046     12.058718
   1.88261     12.077300     12.076977
   1.92648     11.949735     11.949436
   1.97035     12.244744     12.244306
   2.01423     12.382750     12.382304
   2.05810     12.478736     12.478290
   2.10198     12.561482     12.561020
   2.14585     12.626376     12.625885
   2.18973     12.659636     12.659107
   2.23360     12.639319     12.638750
   2.27748     12.540919     12.540328
   2.27748     12.540919     12.540328
   2.36522     12.792862     12.792294
   2.45297     12.972359     12.971822
   2.54072     13.069558     13.069055
   2.62847     13.082727     13.082255
   2.71622     13.019557     13.019111
   2.80397     12.797533     12.797369
   2.89172     12.489206     12.489061
   2.97947     12.233403     12.233158
   3.06722     12.001159     12.001052
   3.15496     11.651766     11.651650
   3.24271     11.354288     11.354159
   3.33046     11.164753     11.164666
   3.41821     11.028851     11.028771
   3.50596     10.945038     10.944964
   3.59371     11.212448     11.212254
   3.68146     11.128156     11.127966
   3.76921     11.061808     11.061688
   3.85695     11.024279     11.024213
   3.94470     10.978769     10.978719
 
# Band-Index   14
   3.94470     11.012742     11.012694
   3.85695     11.061215     11.061161
   3.76921     11.318130     11.318084
   3.68146     11.597110     11.596939
   3.59371     11.225393     11.225135
   3.50596     11.353348     11.353033
   3.41821     11.509205     11.508848
   3.33046     11.689448     11.689062
   3.24271     11.888420     11.888015
   3.15496     12.100361     12.099945
   3.06722     12.233273     12.233016
   2.97947     12.399741     12.399646
   2.89172     12.723860     12.723464
   2.80397     12.894943     12.894516
   2.71622     13.068030     13.067847
   2.62847     13.274693     13.274494
   2.54072     13.399570     13.399365
   2.45297     13.442846     13.442649
   2.36522     13.427490     13.427320
   2.27748     13.408906     13.408763
   2.27748     13.408906     13.408763
   2.23360     13.410029     13.409876
   2.18973     13.392733     13.392555
   2.14585     13.320468     13.320271
   2.10198     13.171986     13.171783
   2.05810     12.948905     12.948707
   2.01423     12.669255     12.669078
   1.97035     12.387778     12.387609
   1.92648     12.240070     12.239775
   1.88261     12.144049     12.143727
   1.83873     12.351185     12.350885
   1.79486     12.626071     12.625795
   1.75098     12.893948     12.893700
   1.70711     12.826816     12.826425
   1.66323     12.709329     12.708920
   1.61936     12.616441     12.616019
   1.57548     12.545923     12.545490
   1.53161     12.496540     12.496100
   1.48774     12.467313     12.466869
   1.44386     12.457592     12.457146
   1.44386     12.457592     12.457146
   1.36787     12.764502     12.764061
   1.29188     13.302720     13.302274
   1.21588     13.414506     13.414355
   1.13989     13.140504     13.140339
   1.06390     12.878362     12.878181
   0.98791     12.648133     12.647932
   0.91191     12.468068     12.467843
   0.83592     12.356414     12.356162
   0.75993     12.329586     12.329307
   0.68393     12.397108     12.396806
   0.60794     12.555298     12.554984
   0.53195     12.436654     12.436204
   0.45596     12.048304     12.047877
   0.37996     11.695878     11.695487
   0.30397     11.429036     11.428854
   0.22798     11.507825     11.507780
   0.15199     11.217217     11.217169
   0.07599     11.038901     11.038851
   0.00000     11.012742     11.012694
 
# Band-Index   15
   0.00000     11.012766     11.012719
   0.07599     11.072854     11.072808
   0.15199     11.250922     11.250877
   0.22798     11.541213     11.541171
   0.30397     11.901849     11.901808
   0.37996     12.388627     12.388590
   0.45596     12.956958     12.956925
   0.53195     12.785622     12.785306
   0.60794     12.846483     12.846015
   0.68393     13.264622     13.264141
   0.75993     13.676617     13.676128
   0.83592     14.062931     14.062439
   0.91191     14.387912     14.387424
   0.98791     14.591223     14.590745
   1.06390     14.583153     14.582688
   1.13989     14.315643     14.315185
   1.21588     13.852623     13.852170
   1.29188     13.673664     13.673527
   1.36787     13.874915     13.874791
   1.44386     13.954624     13.954507
   1.44386     13.954624     13.954507
   1.48774     13.930072     13.929951
   1.53161     13.856723     13.856591
   1.57548     13.737222     13.737073
   1.61936     13.575318     13.575148
   1.66323     13.376269     13.376075
   1.70711     13.146685     13.146464
   1.75098     12.970968     12.970599
   1.79486     13.144548     13.144203
   1.83873     13.349910     13.349592
   1.88261     13.589256     13.588966
   1.92648     13.863600     13.863339
   1.97035     14.172163     14.171928
   2.01423     14.512067     14.511853
   2.05810     14.688641     14.687991
   2.10198     14.538287     14.537628
   2.14585     14.417908     14.417243
   2.18973     14.330534     14.329865
   2.23360     14.277810     14.277139
   2.27748     14.260293     14.259622
   2.27748     14.260293     14.259622
   2.36522     14.329120     14.328451
   2.45297     14.529394     14.528730
   2.54072     14.848924     14.848266
   2.62847     14.442048     14.441930
   2.71622     13.876508     13.876393
   2.80397     13.344519     13.344402
   2.89172     12.853948     12.853808
   2.97947     12.532036     12.531600
   3.06722     12.317449     12.317024
   3.15496     12.256789     12.256510
   3.24271     12.351966     12.351665
   3.33046     12.539478     12.539164
   3.41821     12.808969     12.808655
   3.50596     12.482769     12.482715
   3.59371     12.063976     12.063930
   3.68146     11.658129     11.658085
   3.76921     11.321457     11.321386
   3.85695     11.091916     11.091869
   3.94470     11.012766     11.012719
 
# Band-Index   16
   3.94470     12.112866     12.112726
   3.85695     12.054341     12.054198
   3.76921     11.880703     11.880549
   3.68146     11.759685     11.759587
   3.59371     12.344445     12.344324
   3.50596     13.035320     13.035178
   3.41821     12.874565     12.874500
   3.33046     13.223639     13.223560
   3.24271     13.532642     13.532549
   3.15496     13.812383     13.812279
   3.06722     14.074902     14.074789
   2.97947     14.332460     14.332341
   2.89172     14.598338     14.598217
   2.80397     14.887212     14.887090
   2.71622     15.213481     15.213359
   2.62847     15.273867     15.273217
   2.54072     15.031517     15.031391
   2.45297     15.629220     15.629080
   2.36522     16.199235     16.199064
   2.27748     16.564648     16.564432
   2.27748     16.564648     16.564432
   2.23360     16.396948     16.396750
   2.18973     16.048423     16.048239
   2.14585     15.658762     15.658581
   2.10198     15.263830     15.263644
   2.05810     14.878459     14.878263
   2.01423     14.863782     14.863145
   1.97035     15.055423     15.054805
   1.92648     15.250938     15.250345
   1.88261     15.432407     15.431851
   1.83873     15.579531     15.579021
   1.79486     15.678649     15.678184
   1.75098     15.731144     15.730717
   1.70711     15.749535     15.749134
   1.66323     15.747857     15.747474
   1.61936     15.736796     15.736424
   1.57548     15.723078     15.722713
   1.53161     15.710930     15.710569
   1.48774     15.702840     15.702482
   1.44386     15.699941     15.699583
   1.44386     15.699941     15.699583
   1.36787     15.791065     15.790711
   1.29188     16.027909     16.027556
   1.21588     16.353873     16.353515
   1.13989     16.736064     16.735692
   1.06390     17.161133     17.160744
   0.98791     17.625767     17.625357
   0.91191     17.393327     17.393314
   0.83592     16.596419     16.596403
   0.75993     15.802902     15.802884
   0.68393     15.029571     15.029550
   0.60794     14.289174     14.289149
   0.53195     13.594312     13.594283
   0.45596     12.990588     12.990559
   0.37996     12.422144     12.422110
   0.30397     11.935198     11.935159
   0.22798     11.723527     11.723364
   0.15199     11.938277     11.938126
   0.07599     12.068970     12.068828
   0.00000     12.112866     12.112726
 
# Band-Index   17
   0.00000     13.412799     13.412716
   0.07599     13.459483     13.459400
   0.15199     13.596595     13.596511
   0.22798     13.816101     13.816016
   0.30397     13.620142     13.619865
   0.37996     13.347027     13.346734
   0.45596     13.059724     13.059418
   0.53195     13.628697     13.628672
   0.60794     14.324947     14.324925
   0.68393     15.067612     15.067594
   0.75993     15.844221     15.844207
   0.83592     16.642415     16.642405
   0.91191     17.446087     17.446080
   0.98791     17.635990     17.635471
   1.06390     17.467150     17.466514
   1.13989     17.450085     17.449459
   1.21588     17.593952     17.593356
   1.29188     17.804539     17.803982
   1.36787     17.994271     17.993759
   1.44386     18.074655     18.074169
   1.44386     18.074655     18.074169
   1.48774     18.071605     18.071120
   1.53161     18.062222     18.061740
   1.57548     18.046730     18.046252
   1.61936     18.025157     18.024685
   1.66323     17.996420     17.995955
   1.70711     17.962484     17.962028
   1.75098     17.678965     17.678435
   1.79486     17.437458     17.436954
   1.83873     17.271402     17.270934
   1.88261     17.187627     17.187195
   1.92648     17.176868     17.176464
   1.97035     17.222299     17.221915
   2.01423     17.308848     17.308476
   2.05810     17.425860     17.425494
   2.10198     17.420440     17.420069
   2.14585     17.328786     17.328432
   2.18973     17.223328     17.223002
   2.23360     17.118238     17.117957
   2.27748     17.135777     17.135534
   2.27748     17.135777     17.135534
   2.36522     16.798676     16.798462
   2.45297     16.408759     16.408587
   2.54072     15.991838     15.991696
   2.62847     15.584419     15.584291
   2.71622     15.790383     15.789741
   2.80397     16.384925     16.384290
   2.89172     16.688615     16.688078
   2.97947     17.164334     17.163770
   3.06722     16.802941     16.802609
   3.15496     16.116931     16.116654
   3.24271     15.367256     15.367026
   3.33046     14.582132     14.581939
   3.41821     13.793192     13.793027
   3.50596     13.127957     13.127654
   3.59371     13.455367     13.455080
   3.68146     13.752723     13.752455
   3.76921     13.657332     13.657248
   3.85695     13.474953     13.474870
   3.94470     13.412799     13.412716
 
# Band-Index   18
   3.94470     14.191116     14.190876
   3.85695     14.139176     14.138933
   3.76921     13.988397     13.988143
   3.68146     13.953783     13.953697
   3.59371     14.365612     14.365527
   3.50596     14.900199     14.900118
   3.41821     15.557357     15.557282
   3.33046     16.319968     16.319900
   3.24271     17.154072     17.154009
   3.15496     18.017713     18.017650
   3.06722     17.844643     17.844064
   2.97947     17.403980     17.403587
   2.89172     17.043741     17.043114
   2.80397     16.455819     16.455324
   2.71622     16.465460     16.465013
   2.62847     16.671275     16.670868
   2.54072     17.009417     17.009037
   2.45297     17.422602     17.422237
   2.36522     17.582370     17.581893
   2.27748     17.135781     17.135539
   2.27748     17.135781     17.135539
   2.23360     17.273805     17.273594
   2.18973     17.360958     17.360835
   2.14585     17.396223     17.396141
   2.10198     17.435451     17.435360
   2.05810     17.501650     17.501484
   2.01423     17.576453     17.576062
   1.97035     17.645851     17.645451
   1.92648     17.710753     17.710344
   1.88261     17.771150     17.770732
   1.83873     17.826918     17.826490
   1.79486     17.877583     17.877145
   1.75098     17.922702     17.922255
   1.70711     17.976244     17.975698
   1.66323     18.305607     18.305056
   1.61936     18.536771     18.536321
   1.57548     18.605763     18.605287
   1.53161     18.657933     18.657437
   1.48774     18.690756     18.690248
   1.44386     18.701725     18.701212
   1.44386     18.701725     18.701212
   1.36787     18.714932     18.714452
   1.29188     18.710848     18.710432
   1.21588     18.638370     18.638019
   1.13989     18.479687     18.479393
   1.06390     18.242353     18.242095
   0.98791     17.992583     17.992239
   0.91191     17.468121     17.467929
   0.83592     17.073128     17.072980
   0.75993     16.635174     16.635046
   0.68393     16.180917     16.180802
   0.60794     15.724422     15.724315
   0.53195     15.276766     15.276666
   0.45596     14.850064     14.849970
   0.37996     14.455693     14.455602
   0.30397     14.106864     14.106776
   0.22798     13.856211     13.855949
   0.15199     14.037850     14.037600
   0.07599     14.152158     14.151916
   0.00000     14.191116     14.190876
 
# Band-Index   19
   0.00000     17.232548     17.232007
   0.07599     17.263901     17.263361
   0.15199     17.355524     17.354986
   0.22798     17.500453     17.499918
   0.30397     17.688170     17.687638
   0.37996     17.905254     17.904723
   0.45596     18.135578     18.135043
   0.53195     18.358671     18.358127
   0.60794     18.546298     18.545735
   0.68393     18.656933     18.656342
   0.75993     18.637901     18.637276
   0.83592     18.453153     18.452504
   0.91191     18.129466     18.129033
   0.98791     18.176147     18.176134
   1.06390     18.921884     18.921872
   1.13989     19.604125     19.604112
   1.21588     19.680454     19.679923
   1.29188     19.570369     19.569841
   1.36787     19.505377     19.504851
   1.44386     19.483881     19.483356
   1.44386     19.483881     19.483356
   1.48774     19.417496     19.416968
   1.53161     19.232568     19.232033
   1.57548     18.962417     18.961874
   1.61936     18.643127     18.642577
   1.66323     18.453033     18.452612
   1.70711     18.358280     18.357890
   1.75098     18.255066     18.254708
   1.79486     18.146035     18.145710
   1.83873     18.033185     18.032894
   1.88261     17.918478     17.918221
   1.92648     17.804528     17.804307
   1.97035     17.693838     17.693653
   2.01423     17.590755     17.590606
   2.05810     17.501868     17.501536
   2.10198     17.566600     17.566239
   2.14585     17.726727     17.726367
   2.18973     17.726986     17.726598
   2.23360     17.712220     17.711946
   2.27748     17.789129     17.788909
   2.27748     17.789129     17.788909
   2.36522     17.789556     17.789468
   2.45297     17.662356     17.661859
   2.54072     17.806490     17.805934
   2.62847     18.036490     18.035857
   2.71622     18.284804     18.284082
   2.80397     18.255076     18.254491
   2.89172     17.901729     17.901265
   2.97947     17.751995     17.751377
   3.06722     18.492310     18.491699
   3.15496     18.683918     18.683333
   3.24271     19.007572     19.007035
   3.33046     18.714551     18.714021
   3.41821     18.406161     18.405634
   3.50596     18.104818     18.104291
   3.59371     17.825845     17.825316
   3.68146     17.584076     17.583543
   3.76921     17.395199     17.394662
   3.85695     17.274256     17.273716
   3.94470     17.232548     17.232007
 
# Band-Index   20
   3.94470     22.994731     22.994086
   3.85695     22.950283     22.949638
   3.76921     22.814689     22.814045
   3.68146     22.583167     22.582527
   3.59371     22.252080     22.251449
   3.50596     21.820639     21.820018
   3.41821     21.290601     21.289991
   3.33046     20.670808     20.670205
   3.24271     19.646830     19.646243
   3.15496     19.243448     19.242844
   3.06722     18.857158     18.857084
   2.97947     19.337065     19.336492
   2.89172     19.134986     19.134440
   2.80397     18.858751     18.858320
   2.71622     18.744290     18.744032
   2.62847     18.769023     18.768750
   2.54072     18.533481     18.533255
   2.45297     18.247723     18.247507
   2.36522     17.864598     17.864238
   2.27748     17.789141     17.788922
   2.27748     17.789141     17.788922
   2.23360     17.919457     17.919276
   2.18973     17.903402     17.903044
   2.14585     17.863793     17.863331
   2.10198     18.081327     18.080838
   2.05810     18.354140     18.353641
   2.01423     18.670956     18.670457
   1.97035     19.019639     19.019148
   1.92648     19.384588     19.384114
   1.88261     19.747123     19.746675
   1.83873     19.935585     19.935149
   1.79486     20.096233     20.095777
   1.75098     20.272915     20.272437
   1.70711     20.468948     20.468445
   1.66323     20.685460     20.684930
   1.61936     20.919907     20.919349
   1.57548     21.012074     21.011998
   1.53161     21.028010     21.027965
   1.48774     21.034384     21.034358
   1.44386     21.035958     21.035939
   1.44386     21.035958     21.035939
   1.36787     20.936099     20.936080
   1.29188     20.645527     20.645510
   1.21588     20.190341     20.190326
   1.13989     19.693467     19.693469
   1.06390     18.995936     18.995935
   0.98791     18.238182     18.238178
   0.91191     18.143829     18.143189
   0.83592     18.672656     18.672197
   0.75993     19.252833     19.252347
   0.68393     19.862235     19.861720
   0.60794     20.482805     20.482260
   0.53195     21.083930     21.083354
   0.45596     21.625769     21.625166
   0.37996     22.076914     22.076291
   0.30397     22.427828     22.427193
   0.22798     22.685106     22.684464
   0.15199     22.859943     22.859299
   0.07599     22.961431     22.960786
   0.00000     22.994731     22.994086
 
# Band-Index   21
   0.00000     24.588516     24.588069
   0.07599     24.626668     24.626223
   0.15199     24.736416     24.735980
   0.22798     24.901615     24.901192
   0.30397     25.086804     25.086398
   0.37996     24.503525     24.502963
   0.45596     23.687163     23.686606
   0.53195     22.981907     22.981350
   0.60794     22.375701     22.375142
   0.68393     21.847256     21.846696
   0.75993     21.380658     21.380100
   0.83592     20.968612     20.968057
   0.91191     20.608728     20.608177
   0.98791     20.300587     20.300041
   1.06390     20.043823     20.043282
   1.13989     19.837610     19.837075
   1.21588     20.296061     20.296065
   1.29188     20.766913     20.766919
   1.36787     21.069583     21.069590
   1.44386     21.174443     21.174450
   1.44386     21.174443     21.174450
   1.48774     21.158893     21.158899
   1.53161     21.111614     21.111615
   1.57548     21.035866     21.035861
   1.61936     20.933049     20.933034
   1.66323     20.804241     20.804217
   1.70711     20.653924     20.653891
   1.75098     20.482770     20.482727
   1.79486     20.293260     20.293208
   1.83873     20.085540     20.085480
   1.88261     19.786425     19.786006
   1.92648     19.623543     19.623472
   1.97035     19.373557     19.373480
   2.01423     19.114346     19.114265
   2.05810     18.850477     18.850389
   2.10198     18.587054     18.586957
   2.14585     18.334092     18.333979
   2.18973     18.105596     18.105456
   2.23360     18.094780     18.094421
   2.27748     18.299146     18.298787
   2.27748     18.299146     18.298787
   2.36522     18.013276     18.013069
   2.45297     18.286945     18.286757
   2.54072     18.637265     18.637019
   2.62847     18.902067     18.901830
   2.71622     19.341030     19.340783
   2.80397     19.775213     19.774964
   2.89172     19.955304     19.955110
   2.97947     19.578031     19.577922
   3.06722     19.375981     19.375416
   3.15496     19.247759     19.247211
   3.24271     19.979319     19.978717
   3.33046     20.709355     20.708765
   3.41821     21.855027     21.854436
   3.50596     23.070813     23.070219
   3.59371     24.342497     24.341899
   3.68146     24.992143     24.991728
   3.76921     24.783023     24.782591
   3.85695     24.639211     24.638768
   3.94470     24.588516     24.588069
 
# Band-Index   22
   3.94470     25.052399     25.051902
   3.85695     25.100543     25.100049
   3.76921     25.241768     25.241279
   3.68146     25.465159     25.464678
   3.59371     25.209832     25.209442
   3.50596     25.334017     25.333658
   3.41821     25.224606     25.224282
   3.33046     24.806443     24.806148
   3.24271     24.157325     24.157054
   3.15496     23.408374     23.408126
   3.06722     22.660737     22.660519
   2.97947     22.014102     22.013937
   2.89172     21.673192     21.673127
   2.80397     21.422250     21.421829
   2.71622     20.849708     20.849305
   2.62847     20.287146     20.286756
   2.54072     19.743358     19.742980
   2.45297     19.226080     19.225710
   2.36522     18.742344     18.741980
   2.27748     18.299148     18.298788
   2.27748     18.299148     18.298788
   2.23360     18.504820     18.504459
   2.18973     18.699399     18.699035
   2.14585     18.881981     18.881613
   2.10198     19.052178     19.051806
   2.05810     19.210973     19.210595
   2.01423     19.360382     19.359997
   1.97035     19.503443     19.503049
   1.92648     19.643978     19.643572
   1.88261     19.861420     19.861354
   1.83873     20.086882     20.086473
   1.79486     20.382807     20.382451
   1.75098     20.619908     20.619614
   1.70711     20.792788     20.792558
   1.66323     20.906922     20.906753
   1.61936     20.976149     20.976032
   1.57548     21.162405     21.161819
   1.53161     21.390947     21.390335
   1.48774     21.565372     21.564740
   1.44386     21.632693     21.632051
   1.44386     21.632693     21.632051
   1.36787     21.654375     21.653734
   1.29188     21.718992     21.718351
   1.21588     21.826774     21.826133
   1.13989     21.977575     21.976934
   1.06390     22.171277     22.170636
   0.98791     22.407786     22.407144
   0.91191     22.686874     22.686232
   0.83592     22.801051     22.800837
   0.75993     23.088279     23.088026
   0.68393     23.594203     23.593905
   0.60794     24.220068     24.219732
   0.53195     24.705813     24.705168
   0.45596     25.163355     25.162983
   0.37996     25.217699     25.217312
   0.30397     25.420674     25.420101
   0.22798     25.367704     25.367221
   0.15199     25.195328     25.194837
   0.07599     25.088556     25.088061
   0.00000     25.052399     25.051902
 
# Band-Index   23
   0.00000     28.227126     28.226438
   0.07599     28.019790     28.019110
   0.15199     27.351698     27.351073
   0.22798     26.401247     26.400654
   0.30397     25.598141     25.597666
   0.37996     25.782453     25.781804
   0.45596     25.227329     25.226682
   0.53195     24.807018     24.806659
   0.60794     24.221427     24.220783
   0.68393     23.776219     23.775575
   0.75993     23.371568     23.370925
   0.83592     23.008267     23.007625
   0.91191     22.752136     22.751942
   0.98791     22.895182     22.894994
   1.06390     23.165801     23.165612
   1.13989     23.514374     23.514180
   1.21588     23.905937     23.905736
   1.29188     24.229583     24.228916
   1.36787     24.165843     24.165175
   1.44386     24.144525     24.143857
   1.44386     24.144525     24.143857
   1.48774     24.225060     24.224395
   1.53161     24.452280     24.451624
   1.57548     24.793408     24.792762
   1.61936     24.731123     24.730832
   1.66323     24.319180     24.318928
   1.70711     23.895882     23.895677
   1.75098     23.500435     23.500286
   1.79486     23.146822     23.146731
   1.83873     22.832309     22.832268
   1.88261     22.543708     22.543706
   1.92648     22.268274     22.268300
   1.97035     21.996705     21.996750
   2.01423     21.727594     21.727652
   2.05810     21.465084     21.465150
   2.10198     21.217583     21.217655
   2.14585     20.997245     20.997322
   2.18973     20.819087     20.819168
   2.23360     20.700370     20.700455
   2.27748     20.657989     20.658074
   2.27748     20.657989     20.658074
   2.36522     20.831380     20.831459
   2.45297     21.267690     21.267755
   2.54072     21.746966     21.747014
   2.62847     22.041940     22.041974
   2.71622     22.035886     22.035908
   2.80397     21.805048     21.805052
   2.89172     21.996311     21.995868
   2.97947     22.564630     22.564160
   3.06722     23.125004     23.124503
   3.15496     23.682999     23.682466
   3.24271     24.253286     24.252723
   3.33046     24.853859     24.853273
   3.41821     25.487578     25.486981
   3.50596     26.031158     26.030681
   3.59371     25.746621     25.746147
   3.68146     25.645666     25.645058
   3.76921     26.912236     26.911606
   3.85695     27.898806     27.898136
   3.94470     28.227126     28.226438
 
# Band-Index   24
   3.94470     28.227138     28.226450
   3.85695     28.015243     28.014571
   3.76921     27.575552     27.574906
   3.68146     27.112214     27.111593
   3.59371     26.649004     26.648402
   3.50596     26.111676     26.111080
   3.41821     26.164710     26.164198
   3.33046     25.850366     25.849818
   3.24271     25.223286     25.222771
   3.15496     24.633269     24.632817
   3.06722     24.241175     24.240802
   2.97947     24.124256     24.123963
   2.89172     24.272554     24.272319
   2.80397     24.594205     24.593993
   2.71622     24.969238     24.968998
   2.62847     25.289450     25.289111
   2.54072     25.509951     25.509458
   2.45297     25.708174     25.707541
   2.36522     25.974508     25.973776
   2.27748     26.297339     26.296551
   2.27748     26.297339     26.296551
   2.23360     26.131277     26.130514
   2.18973     25.964932     25.964203
   2.14585     25.807962     25.807268
   2.10198     25.666288     25.665627
   2.05810     25.544822     25.544193
   2.01423     25.447875     25.447277
   1.97035     25.379907     25.379338
   1.92648     25.343725     25.343182
   1.88261     25.339727     25.339209
   1.83873     25.366244     25.365748
   1.79486     25.416672     25.416194
   1.75098     25.484582     25.484117
   1.70711     25.408568     25.408395
   1.66323     25.287589     25.287409
   1.61936     25.181485     25.181300
   1.57548     25.058373     25.058049
   1.53161     24.862495     24.861939
   1.48774     24.564491     24.563944
   1.44386     24.455353     24.454810
   1.44386     24.455353     24.454810
   1.36787     24.516012     24.515470
   1.29188     24.314764     24.314553
   1.21588     24.335761     24.335093
   1.13989     24.484247     24.483579
   1.06390     24.674854     24.674187
   0.98791     24.907341     24.906674
   0.91191     25.181337     25.180670
   0.83592     25.496341     25.495675
   0.75993     25.851659     25.850993
   0.68393     26.246375     26.245710
   0.60794     26.678753     26.678088
   0.53195     26.543489     26.543049
   0.45596     26.199622     26.199170
   0.37996     25.878558     25.878093
   0.30397     26.364624     26.363971
   0.22798     26.960335     26.959677
   0.15199     27.538569     27.537902
   0.07599     28.026863     28.026193
   0.00000     28.227138     28.226450
 
# Band-Index   25
   0.00000     30.269479     30.268836
   0.07599     29.893872     29.893280
   0.15199     29.512783     29.512156
   0.22798     29.250636     29.249979
   0.30397     28.713627     28.712968
   0.37996     28.172322     28.171661
   0.45596     27.646525     27.645863
   0.53195     27.146689     27.146025
   0.60794     26.883114     26.882684
   0.68393     27.188547     27.188123
   0.75993     27.433891     27.433472
   0.83592     27.333393     27.332743
   0.91191     26.895186     26.894597
   0.98791     26.362699     26.362140
   1.06390     25.840083     25.839536
   1.13989     25.372442     25.371900
   1.21588     24.984930     24.984390
   1.29188     24.695193     24.694652
   1.36787     24.712918     24.712699
   1.44386     24.971919     24.971718
   1.44386     24.971919     24.971718
   1.48774     24.985934     24.985735
   1.53161     25.027068     25.026871
   1.57548     25.093288     25.093096
   1.61936     25.213309     25.212673
   1.66323     25.667473     25.667018
   1.70711     25.566411     25.565953
   1.75098     25.540201     25.540033
   1.79486     25.679638     25.679473
   1.83873     25.821850     25.821685
   1.88261     25.964313     25.964146
   1.92648     26.103894     26.103722
   1.97035     26.237165     26.236980
   2.01423     26.360347     26.360141
   2.05810     26.468712     26.468465
   2.10198     26.552849     26.552520
   2.14585     26.593893     26.593399
   2.18973     26.559302     26.558606
   2.23360     26.448259     26.447478
   2.27748     26.297343     26.296555
   2.27748     26.297343     26.296555
   2.36522     26.541217     26.540575
   2.45297     26.579433     26.579081
   2.54072     26.599397     26.599165
   2.62847     26.708185     26.707918
   2.71622     26.890819     26.890476
   2.80397     27.182822     27.182447
   2.89172     27.488331     27.487947
   2.97947     27.730543     27.730162
   3.06722     27.572002     27.571289
   3.15496     27.407089     27.406387
   3.24271     27.298621     27.297929
   3.33046     27.261991     27.261304
   3.41821     27.332057     27.331368
   3.50596     27.579021     27.578324
   3.59371     28.082071     28.081377
   3.68146     28.790302     28.789624
   3.76921     29.411496     29.410860
   3.85695     29.795751     29.795159
   3.94470     30.269479     30.268836
 
# Band-Index   26
   3.94470     30.269494     30.268851
   3.85695     30.067641     30.066992
   3.76921     29.519964     29.519304
   3.68146     29.267533     29.266857
   3.59371     29.080317     29.079649
   3.50596     28.718710     28.718157
   3.41821     27.906382     27.905908
   3.33046     27.627421     27.627031
   3.24271     27.724370     27.724003
   3.15496     27.844649     27.844282
   3.06722     27.856284     27.855911
   2.97947     27.786856     27.786130
   2.89172     28.047289     28.046552
   2.80397     27.673559     27.673406
   2.71622     27.145215     27.145060
   2.62847     26.765923     26.765745
   2.54072     26.696321     26.696162
   2.45297     26.790943     26.790860
   2.36522     26.880590     26.880545
   2.27748     26.879008     26.879204
   2.27748     26.879008     26.879204
   2.23360     26.897987     26.898181
   2.18973     26.910665     26.910548
   2.14585     26.956384     26.956086
   2.10198     27.050586     27.050153
   2.05810     27.076488     27.076350
   2.01423     27.105665     27.105511
   1.97035     27.142221     27.142055
   1.92648     27.190146     27.189971
   1.88261     27.253391     27.253208
   1.83873     27.335779     27.335592
   1.79486     27.193329     27.192714
   1.75098     26.688608     26.687992
   1.70711     26.180482     26.179861
   1.66323     25.682994     25.682367
   1.61936     25.803747     25.803184
   1.57548     25.291975     25.291412
   1.53161     25.249378     25.249026
   1.48774     25.335812     25.335445
   1.44386     25.359917     25.359546
   1.44386     25.359917     25.359546
   1.36787     25.603489     25.603126
   1.29188     25.964037     25.963640
   1.21588     26.339600     26.339161
   1.13989     26.728480     26.728009
   1.06390     27.121309     27.120822
   0.98791     27.473661     27.473184
   0.91191     27.648565     27.648130
   0.83592     27.598997     27.598578
   0.75993     27.548354     27.547650
   0.68393     27.641781     27.641065
   0.60794     27.749779     27.749066
   0.53195     27.926752     27.926047
   0.45596     28.194626     28.193932
   0.37996     28.555107     28.554424
   0.30397     28.983275     28.982598
   0.22798     29.378962     29.378270
   0.15199     29.745014     29.744361
   0.07599     30.122009     30.121362
   0.00000     30.269494     30.268851
 
# Band-Index   27
   0.00000     30.673672     30.673145
   0.07599     30.191051     30.190458
   0.15199     29.923848     29.923256
   0.22798     29.650065     29.649510
   0.30397     29.713305     29.712716
   0.37996     29.146939     29.146426
   0.45596     28.433586     28.433107
   0.53195     28.097070     28.096632
   0.60794     28.063845     28.063442
   0.68393     28.149126     28.148745
   0.75993     28.209785     28.209408
   0.83592     28.161581     28.161190
   0.91191     28.004099     28.003698
   0.98791     27.886562     27.886189
   1.06390     27.752560     27.752032
   1.13989     27.569960     27.569439
   1.21588     27.430721     27.430206
   1.29188     27.333642     27.333134
   1.36787     27.276772     27.276268
   1.44386     27.258108     27.257606
   1.44386     27.258108     27.257606
   1.48774     26.901716     26.901273
   1.53161     26.445003     26.444560
   1.57548     26.061950     26.061500
   1.61936     25.813876     25.813421
   1.66323     26.359513     26.358961
   1.70711     26.918620     26.918095
   1.75098     27.416430     27.415965
   1.79486     27.439139     27.438950
   1.83873     27.682327     27.681711
   1.88261     27.883290     27.882832
   1.92648     27.667783     27.667309
   1.97035     27.478614     27.478127
   2.01423     27.314232     27.313738
   2.05810     27.172271     27.171788
   2.10198     27.051730     27.051609
   2.14585     27.029049     27.028949
   2.18973     26.954768     26.954957
   2.23360     26.907289     26.907246
   2.27748     26.911285     26.911254
   2.27748     26.911285     26.911254
   2.36522     26.952961     26.953152
   2.45297     27.164289     27.164468
   2.54072     27.490823     27.490980
   2.62847     27.901379     27.901499
   2.71622     28.345385     28.345421
   2.80397     28.346800     28.346054
   2.89172     28.218742     28.218569
   2.97947     28.672057     28.671850
   3.06722     28.862882     28.862337
   3.15496     28.787061     28.786486
   3.24271     28.734339     28.733743
   3.33046     28.726937     28.726323
   3.41821     28.779511     28.778881
   3.50596     28.899970     28.899322
   3.59371     29.790210     29.789615
   3.68146     29.742095     29.741541
   3.76921     29.916581     29.915998
   3.85695     30.167491     30.166895
   3.94470     30.673672     30.673145
 
# Band-Index   28
   3.94470     30.993313     30.992752
   3.85695     31.320399     31.319831
   3.76921     32.082654     32.082075
   3.68146     30.981966     30.981346
   3.59371     29.790244     29.789685
   3.50596     29.857937     29.857539
   3.41821     29.343742     29.343361
   3.33046     29.149855     29.149497
   3.24271     29.135333     29.135008
   3.15496     29.115318     29.115031
   3.06722     28.974598     28.974352
   2.97947     28.926937     28.926450
   2.89172     28.913730     28.913373
   2.80397     28.723866     28.723728
   2.71622     28.675548     28.674794
   2.62847     28.427139     28.426403
   2.54072     27.895886     27.895224
   2.45297     27.421320     27.420798
   2.36522     27.073384     27.073174
   2.27748     26.979586     26.979543
   2.27748     26.979586     26.979543
   2.23360     26.988784     26.988729
   2.18973     27.007486     27.007408
   2.14585     27.047905     27.048085
   2.10198     27.173802     27.173967
   2.05810     27.325709     27.325850
   2.01423     27.493243     27.493346
   1.97035     27.660823     27.660870
   1.92648     27.806616     27.806584
   1.88261     27.901545     27.901413
   1.83873     27.905571     27.905324
   1.79486     27.759947     27.759581
   1.75098     27.562427     27.562238
   1.70711     27.699083     27.698892
   1.66323     27.835614     27.835418
   1.61936     27.949686     27.949478
   1.57548     28.006184     28.005950
   1.53161     27.956015     27.955738
   1.48774     27.753835     27.753514
   1.44386     27.488318     27.488036
   1.44386     27.488318     27.488036
   1.36787     27.513836     27.513551
   1.29188     27.582416     27.582120
   1.21588     27.673379     27.673066
   1.13989     27.762135     27.761803
   1.06390     27.831591     27.831239
   0.98791     27.978980     27.978447
   0.91191     28.175022     28.174355
   0.83592     28.258207     28.257584
   0.75993     28.598600     28.598014
   0.68393     29.067562     29.066973
   0.60794     29.490876     29.490275
   0.53195     29.774731     29.774123
   0.45596     29.881848     29.881242
   0.37996     29.836794     29.836193
   0.30397     30.130458     30.129916
   0.22798     31.261431     31.260862
   0.15199     31.848940     31.848365
   0.07599     31.242358     31.241792
   0.00000     30.993313     30.992752
 
# Band-Index   29
   0.00000     30.993321     30.992760
   0.07599     32.045584     32.045025
   0.15199     32.218355     32.218011
   0.22798     32.256789     32.256452
   0.30397     31.932896     31.932325
   0.37996     31.331385     31.330820
   0.45596     30.767829     30.767269
   0.53195     30.243961     30.243405
   0.60794     29.760835     29.760282
   0.68393     29.319225     29.318676
   0.75993     28.919702     28.919157
   0.83592     28.562883     28.562341
   0.91191     28.249177     28.248639
   0.98791     28.237242     28.236561
   1.06390     28.350142     28.349463
   1.13989     28.475539     28.474867
   1.21588     28.591969     28.591307
   1.29188     28.684912     28.684260
   1.36787     28.744736     28.744091
   1.44386     28.765007     28.764365
   1.44386     28.765007     28.764365
   1.48774     28.768208     28.767569
   1.53161     28.777728     28.777095
   1.57548     28.795083     28.794461
   1.61936     28.823327     28.822721
   1.66323     28.870222     28.869636
   1.70711     28.955750     28.955183
   1.75098     28.678298     28.677890
   1.79486     28.391331     28.390905
   1.83873     28.125080     28.124638
   1.88261     28.144398     28.143777
   1.92648     28.569338     28.568708
   1.97035     28.948202     28.947561
   2.01423     29.273950     29.273295
   2.05810     29.461020     29.460380
   2.10198     29.128368     29.127758
   2.14585     28.856855     28.856274
   2.18973     28.658308     28.657752
   2.23360     28.540142     28.539601
   2.27748     28.502081     28.501545
   2.27748     28.502081     28.501545
   2.36522     28.635683     28.635136
   2.45297     28.989587     28.989027
   2.54072     29.355462     29.354699
   2.62847     29.018503     29.017744
   2.71622     29.002811     29.002029
   2.80397     29.625554     29.624742
   2.89172     30.302289     30.301462
   2.97947     31.029489     31.028657
   3.06722     31.637204     31.637047
   3.15496     31.422607     31.422125
   3.24271     31.007986     31.007439
   3.33046     30.612147     30.611582
   3.41821     30.267087     30.266516
   3.50596     29.986169     29.985600
   3.59371     30.666140     30.665719
   3.68146     31.654466     31.654012
   3.76921     32.228730     32.228389
   3.85695     32.197822     32.197476
   3.94470     30.993321     30.992760
 
# Band-Index   30
   3.94470     32.187520     32.187173
   3.85695     32.241514     32.240954
   3.76921     32.238037     32.237400
   3.68146     32.282384     32.282042
   3.59371     32.359462     32.359124
   3.50596     32.464782     32.464444
   3.41821     32.602064     32.601715
   3.33046     32.755758     32.755363
   3.24271     32.800007     32.799455
   3.15496     32.445551     32.444796
   3.06722     31.775265     31.774445
   2.97947     31.181338     31.181356
   2.89172     30.613364     30.613266
   2.80397     30.245468     30.245146
   2.71622     30.112785     30.112280
   2.62847     30.096882     30.096282
   2.54072     29.514923     29.514358
   2.45297     29.659638     29.658876
   2.36522     29.896364     29.895608
   2.27748     30.023118     30.022376
   2.27748     30.023118     30.022376
   2.23360     29.995231     29.994481
   2.18973     29.967909     29.967154
   2.14585     29.897638     29.896935
   2.10198     29.749532     29.748844
   2.05810     29.541940     29.541269
   2.01423     29.842404     29.841738
   1.97035     30.009059     30.008398
   1.92648     30.109216     30.108631
   1.88261     30.250801     30.250352
   1.83873     29.980278     29.979744
   1.79486     29.462342     29.461776
   1.75098     29.127447     29.126887
   1.70711     28.980280     28.979887
   1.66323     29.288624     29.288246
   1.61936     29.591519     29.591154
   1.57548     29.870747     29.870394
   1.53161     30.103309     30.102965
   1.48774     30.067214     30.066948
   1.44386     29.962366     29.962122
   1.44386     29.962366     29.962122
   1.36787     29.981318     29.981080
   1.29188     30.038096     30.037868
   1.21588     30.125719     30.125498
   1.13989     30.226640     30.226414
   1.06390     30.324195     30.323947
   0.98791     30.417745     30.417459
   0.91191     30.533139     30.532804
   0.83592     30.719879     30.719500
   0.75993     31.011426     31.011025
   0.68393     31.389832     31.389443
   0.60794     31.798169     31.797812
   0.53195     32.153139     32.152821
   0.45596     32.340090     32.339790
   0.37996     32.353915     32.353602
   0.30397     32.307005     32.306677
   0.22798     32.569291     32.568710
   0.15199     32.456116     32.455515
   0.07599     32.195243     32.194897
   0.00000     32.187521     32.187173
 
# Band-Index   31
   0.00000     34.192948     34.192826
   0.07599     33.615566     33.614951
   0.15199     33.233238     33.232610
   0.22798     32.635528     32.634948
   0.30397     33.520865     33.520288
   0.37996     33.797434     33.797002
   0.45596     33.472463     33.472035
   0.53195     33.386256     33.385835
   0.60794     33.555595     33.555196
   0.68393     33.882043     33.881633
   0.75993     33.762412     33.761863
   0.83592     33.162273     33.161755
   0.91191     32.593782     32.593311
   0.98791     32.068217     32.067795
   1.06390     31.590894     31.590497
   1.13989     31.170877     31.170497
   1.21588     30.819790     30.819426
   1.29188     30.550519     30.550169
   1.36787     30.377683     30.377344
   1.44386     30.317097     30.316763
   1.44386     30.317097     30.316763
   1.48774     30.260829     30.260493
   1.53161     30.381073     30.380755
   1.57548     30.873879     30.873510
   1.61936     31.488100     31.487696
   1.66323     32.019732     32.019528
   1.70711     31.588437     31.588195
   1.75098     31.186481     31.186182
   1.79486     30.831181     30.830797
   1.83873     30.547230     30.546712
   1.88261     30.716957     30.716255
   1.92648     30.709030     30.708322
   1.97035     30.261524     30.260835
   2.01423     29.953464     29.952755
   2.05810     29.930844     29.930107
   2.10198     29.930674     29.929922
   2.14585     29.945097     29.944341
   2.18973     29.989252     29.988533
   2.23360     30.029300     30.028568
   2.27748     30.023119     30.022377
   2.27748     30.023119     30.022377
   2.36522     30.071602     30.070883
   2.45297     30.100252     30.099562
   2.54072     30.105104     30.104451
   2.62847     30.180495     30.179932
   2.71622     30.955084     30.954523
   2.80397     31.795483     31.794916
   2.89172     32.646662     32.646078
   2.97947     32.831469     32.830863
   3.06722     32.562011     32.561633
   3.15496     32.779115     32.778523
   3.24271     32.954188     32.953586
   3.33046     33.253596     33.252982
   3.41821     33.611556     33.610924
   3.50596     33.863092     33.862427
   3.59371     33.677446     33.676787
   3.68146     32.974202     32.973606
   3.76921     32.716657     32.716145
   3.85695     33.489204     33.488555
   3.94470     34.192935     34.192452
 
# Band-Index   32
   3.94470     34.195642     34.193635
   3.85695     33.729315     33.728691
   3.76921     33.748510     33.754816
   3.68146     33.674992     33.674221
   3.59371     33.751030     33.750277
   3.50596     33.917290     33.916520
   3.41821     34.173480     34.172676
   3.33046     34.505538     34.504818
   3.24271     33.954458     33.954474
   3.15496     33.104885     33.104839
   3.06722     32.754336     32.753755
   2.97947     32.882902     32.882296
   2.89172     33.155083     33.154454
   2.80397     33.555025     33.554576
   2.71622     34.066368     34.065784
   2.62847     34.673778     34.673110
   2.54072     35.363364     35.362781
   2.45297     36.122620     36.122045
   2.36522     36.937619     36.937103
   2.27748     37.788000     37.787459
   2.27748     37.788001     37.787471
   2.23360     37.214263     37.213519
   2.18973     36.460125     36.459547
   2.14585     35.632458     35.631868
   2.10198     34.778386     34.777779
   2.05810     33.920389     33.919774
   2.01423     33.071660     33.071036
   1.97035     32.242811     32.242176
   1.92648     31.446781     31.446130
   1.88261     31.176417     31.175694
   1.83873     31.654885     31.654149
   1.79486     32.133887     32.133126
   1.75098     32.598858     32.598109
   1.70711     32.911935     32.910972
   1.66323     32.176559     32.176133
   1.61936     32.461547     32.461368
   1.57548     32.889352     32.889177
   1.53161     33.266625     33.266480
   1.48774     33.539409     33.538699
   1.44386     33.641376     33.640366
   1.44386     33.640302     33.640089
   1.36787     33.636609     33.636586
   1.29188     33.631414     33.631323
   1.21588     33.637826     33.637708
   1.13989     33.669477     33.669362
   1.06390     33.735682     33.735565
   0.98791     33.840569     33.840510
   0.91191     33.983268     33.983164
   0.83592     34.159070     34.159004
   0.75993     34.361450     34.359586
   0.68393     34.494719     34.497228
   0.60794     34.752247     34.752080
   0.53195     34.698879     34.697766
   0.45596     34.403233     34.402544
   0.37996     34.101521     34.100597
   0.30397     33.866312     33.865119
   0.22798     33.749737     33.748942
   0.15199     33.332558     33.331945
   0.07599     33.896728     33.896676
   0.00000     34.194144     34.196734
